# Spectrum H, 20 nm slit
# Spectrum #00053	4:16:37 PM 4/26/2018
# Wide scan: start 750nm, end 1249.7nm
# Monochromator settings: Grating: 1200 lines/mm; Slits: entrance 20um, exit 20um.
# DAQ device: PCI-6221; ADC bits: 16; Settling time: 10ms
# ADC input range: 10V max, -10V min. Sampling: 100 samples at 6.0006k/second.
# Wavelength (nm)    Signal (V)
750                  0.163069
750.38               0.155774
750.76               0.156728
751.14               0.14866
751.52               0.154167
751.9                0.148154
752.28               0.146064
752.66               0.159947
753.04               0.160911
753.42               0.158526
753.8                0.170547
754.18               0.159921
754.56               0.158802
754.94               0.17546
755.32               0.166191
755.7                0.162044
756.08               0.168658
756.46               0.165964
756.84               0.160642
757.22               0.160957
757.6                0.151691
757.98               0.159535
758.36               0.156754
758.74               0.15454
759.12               0.156063
759.5                0.148731
759.88               0.156066
760.26               0.165711
760.64               0.150834
761.02               0.158484
761.4                0.166389
761.78               0.167038
762.16               0.160788
762.54               0.166136
762.92               0.155693
763.3                0.15233
763.68               0.155388
764.06               0.146696
764.44               0.151331
764.82               0.170248
765.2                0.164773
765.58               0.161687
765.96               0.152567
766.34               0.150656
766.72               0.163306
767.1                0.172228
767.48               0.165439
767.86               0.154398
768.24               0.153145
768.62               0.151795
769                  0.162631
769.38               0.157461
769.76               0.1638
770.14               0.161541
770.52               0.174785
770.9                0.16106
771.28               0.158033
771.66               0.160944
772.04               0.156566
772.42               0.153505
772.8                0.14412
773.18               0.152434
773.56               0.153265
773.94               0.160768
774.32               0.156043
774.7                0.158558
775.08               0.159743
775.46               0.159665
775.84               0.163027
776.22               0.157867
776.6                0.159986
776.98               0.155985
777.36               0.33295
777.74               0.867268
778.12               0.841019
778.5                0.556473
778.88               0.396624
779.26               0.302819
779.64               0.244616
780.02               0.215612
780.4                0.188727
780.78               0.177271
781.16               0.162109
781.54               0.176544
781.92               0.162706
782.3                0.157406
782.68               0.16463
783.06               0.161729
783.44               0.162157
783.82               0.158058
784.2                0.151315
784.58               0.160911
784.96               0.155076
785.34               0.14433
785.72               0.156384
786.1                0.155537
786.48               0.159292
786.86               0.158123
787.24               0.150584
787.62               0.152363
788                  0.150779
788.38               0.145771
788.76               0.151727
789.14               0.154317
789.52               0.162495
789.9                0.155459
790.28               0.15197
790.66               0.154158
791.04               0.157182
791.42               0.158617
791.8                0.158493
792.18               0.155514
792.56               0.16341
792.94               0.160162
793.32               0.15764
793.7                0.154687
794.08               0.161083
794.46               0.159989
794.84               0.155504
795.22               0.158464
795.6                0.163975
795.98               0.161447
796.36               0.158422
796.74               0.158188
797.12               0.148734
797.5                0.147936
797.88               0.147083
798.26               0.148942
798.64               0.165533
799.02               0.161099
799.4                0.159415
799.78               0.160314
800.16               0.155306
800.54               0.159506
800.92               0.158458
801.3                0.151993
801.68               0.152457
802.06               0.151477
802.44               0.155456
802.82               0.15591
803.2                0.159464
803.58               0.162138
803.96               0.154213
804.34               0.157799
804.72               0.153106
805.1                0.159009
805.48               0.154638
805.86               0.155235
806.24               0.161576
806.62               0.167275
807                  0.152947
807.38               0.153677
807.76               0.161291
808.14               0.154381
808.52               0.152541
808.9                0.161132
809.28               0.160149
809.66               0.151571
810.04               0.149708
810.42               0.151152
810.8                0.155887
811.18               0.151863
811.56               0.154988
811.94               0.153534
812.32               0.154466
812.7                0.167061
813.08               0.165656
813.46               0.151045
813.84               0.153888
814.22               0.148222
814.6                0.151483
814.98               0.156316
815.36               0.146888
815.74               0.151977
816.12               0.150727
816.5                0.157448
816.88               0.170881
817.26               0.171949
817.64               0.15762
818.02               0.153038
818.4                0.149572
818.78               0.149273
819.16               0.152139
819.54               0.153778
819.92               0.152713
820.3                0.159438
820.68               0.160181
821.06               0.162144
821.44               0.161258
821.82               0.15235
822.2                0.144707
822.58               0.149698
822.96               0.161171
823.34               0.156043
823.72               0.156471
824.1                0.147157
824.48               0.152807
824.86               0.142341
825.24               0.148478
825.62               0.155715
826                  0.161336
826.38               0.154953
826.76               0.161476
827.14               0.156793
827.52               0.162914
827.9                0.165406
828.28               0.158867
828.66               0.161697
829.04               0.154716
829.42               0.153752
829.8                0.158243
830.18               0.152941
830.56               0.156371
830.94               0.149095
831.32               0.158876
831.7                0.155138
832.08               0.154774
832.46               0.159941
832.84               0.159496
833.22               0.146109
833.6                0.144821
833.98               0.142208
834.36               0.155365
834.74               0.162235
835.12               0.157841
835.5                0.165117
835.88               0.162979
836.26               0.15235
836.64               0.146972
837.02               0.153538
837.4                0.154102
837.78               0.15258
838.16               0.147764
838.54               0.152545
838.92               0.162368
839.3                0.157059
839.68               0.152739
840.06               0.154407
840.44               0.16367
840.82               0.16808
841.2                0.157442
841.58               0.152648
841.96               0.151947
842.34               0.150046
842.72               0.153541
843.1                0.157783
843.48               0.170336
843.86               0.16072
844.24               0.162024
844.62               0.163193
845                  0.478178
845.38               0.678844
845.76               0.463216
846.14               0.334089
846.52               0.256689
846.9                0.21201
847.28               0.17535
847.66               0.166535
848.04               0.165429
848.42               0.164296
848.8                0.170005
849.18               0.161599
849.56               0.16094
849.94               0.159305
850.32               0.157306
850.7                0.162437
851.08               0.162923
851.46               0.160742
851.84               0.166172
852.22               0.154988
852.6                0.159444
852.98               0.162157
853.36               0.166045
853.74               0.166175
854.12               0.158834
854.5                0.155329
854.88               0.156579
855.26               0.153291
855.64               0.158691
856.02               0.156066
856.4                0.157351
856.78               0.157163
857.16               0.152678
857.54               0.161197
857.92               0.163001
858.3                0.153268
858.68               0.154988
859.06               0.155154
859.44               0.149887
859.82               0.150026
860.2                0.149721
860.58               0.156231
860.96               0.153801
861.34               0.152963
861.72               0.15222
862.1                0.160233
862.48               0.147738
862.86               0.153927
863.24               0.146472
863.62               0.149173
864                  0.15481
864.38               0.149163
864.76               0.152165
865.14               0.145616
865.52               0.142179
865.9                0.145278
866.28               0.145369
866.66               0.148549
867.04               0.161025
867.42               0.15875
867.8                0.157997
868.18               0.177787
868.56               0.203666
868.94               0.18839
869.32               0.169054
869.7                0.158104
870.08               0.155121
870.46               0.150201
870.84               0.145596
871.22               0.146128
871.6                0.159104
871.98               0.1574
872.36               0.155306
872.74               0.165718
873.12               0.164234
873.5                0.159295
873.88               0.152694
874.26               0.156468
874.64               0.14522
875.02               0.152512
875.4                0.152103
875.78               0.149741
876.16               0.154372
876.54               0.150101
876.92               0.14827
877.3                0.164624
877.68               0.166464
878.06               0.162819
878.44               0.147754
878.82               0.155303
879.2                0.149663
879.58               0.148478
879.96               0.155813
880.34               0.156897
880.72               0.157484
881.1                0.165215
881.48               0.170518
881.86               0.154528
882.24               0.149747
882.62               0.151048
883                  0.151182
883.38               0.152055
883.76               0.159149
884.14               0.161356
884.52               0.155469
884.9                0.153012
885.28               0.151483
885.66               0.151513
886.04               0.152032
886.42               0.150169
886.8                0.145035
887.18               0.145862
887.56               0.151282
887.94               0.158084
888.32               0.155245
888.7                0.140209
889.08               0.150159
889.46               0.15125
889.84               0.153233
890.22               0.153236
890.6                0.15591
890.98               0.151934
891.36               0.147485
891.74               0.149575
892.12               0.156274
892.5                0.145145
892.88               0.15519
893.26               0.159467
893.64               0.157864
894.02               0.166117
894.4                0.166133
894.78               0.163138
895.16               0.167162
895.54               0.164991
895.92               0.164111
896.3                0.159662
896.68               0.157971
897.06               0.162352
897.44               0.154485
897.82               0.155173
898.2                0.147576
898.58               0.150072
898.96               0.15162
899.34               0.151389
899.72               0.151782
900.1                0.157299
900.48               0.16697
900.86               0.152022
901.24               0.143341
901.62               0.148546
902                  0.141799
902.38               0.148092
902.76               0.140838
903.14               0.145281
903.52               0.161525
903.9                0.156192
904.28               0.16146
904.66               0.162966
905.04               0.154086
905.42               0.155342
905.8                0.146953
906.18               0.155667
906.56               0.158282
906.94               0.151678
907.32               0.161268
907.7                0.16021
908.08               0.165202
908.46               0.160629
908.84               0.155449
909.22               0.163978
909.6                0.166665
909.98               0.162894
910.36               0.159938
910.74               0.163491
911.12               0.155472
911.5                0.151003
911.88               0.148855
912.26               0.146424
912.64               0.154125
913.02               0.15774
913.4                0.15124
913.78               0.150818
914.16               0.152499
914.54               0.154346
914.92               0.158685
915.3                0.161015
915.68               0.155261
916.06               0.161271
916.44               0.155621
916.82               0.162664
917.2                0.150308
917.58               0.149351
917.96               0.1542
918.34               0.156867
918.72               0.153379
919.1                0.150334
919.48               0.16476
919.86               0.163102
920.24               0.176191
920.62               0.168629
921                  0.164439
921.38               0.172137
921.76               0.168262
922.14               0.171462
922.52               0.1708
922.9                0.171417
923.28               0.168794
923.66               0.166195
924.04               0.161742
924.42               0.159808
924.8                0.176255
925.18               0.18004
925.56               0.184372
925.94               0.207496
926.32               0.188682
926.7                0.185884
927.08               0.169894
927.46               0.177891
927.84               0.174532
928.22               0.172806
928.6                0.164153
928.98               0.167853
929.36               0.166967
929.74               0.172257
930.12               0.172585
930.5                0.171582
930.88               0.176632
931.26               0.171167
931.64               0.163839
932.02               0.163423
932.4                0.167172
932.78               0.162326
933.16               0.160811
933.54               0.155057
933.92               0.164046
934.3                0.17718
934.68               0.173627
935.06               0.164309
935.44               0.182532
935.82               0.172978
936.2                0.167827
936.58               0.166123
936.96               0.161239
937.34               0.169898
937.72               0.165406
938.1                0.163845
938.48               0.161168
938.86               0.168032
939.24               0.168914
939.62               0.170761
940                  0.162524
940.38               0.159814
940.76               0.165692
941.14               0.164809
941.52               0.154605
941.9                0.1531
942.28               0.156812
942.66               0.152587
943.04               0.170462
943.42               0.16208
943.8                0.171358
944.18               0.174087
944.56               0.169447
944.94               0.167097
945.32               0.17167
945.7                0.160801
946.08               0.167555
946.46               0.168687
946.84               0.160041
947.22               0.163709
947.6                0.158286
947.98               0.164244
948.36               0.154579
948.74               0.153492
949.12               0.152902
949.5                0.15885
949.88               0.159808
950.26               0.165299
950.64               0.16476
951.02               0.157091
951.4                0.167798
951.78               0.17019
952.16               0.170576
952.54               0.167749
952.92               0.166191
953.3                0.172773
953.68               0.161609
954.06               0.167597
954.44               0.168681
954.82               0.158717
955.2                0.151081
955.58               0.146086
955.96               0.152152
956.34               0.149857
956.72               0.147965
957.1                0.15099
957.48               0.152652
957.86               0.160506
958.24               0.165004
958.62               0.158805
959                  0.147907
959.38               0.153255
959.76               0.149192
960.14               0.152704
960.52               0.158026
960.9                0.160661
961.28               0.15688
961.66               0.150665
962.04               0.147433
962.42               0.151798
962.8                0.145028
963.18               0.151217
963.56               0.156631
963.94               0.151019
964.32               0.147871
964.7                0.144395
965.08               0.15345
965.46               0.157529
965.84               0.156342
966.22               0.152126
966.6                0.155829
966.98               0.149536
967.36               0.153259
967.74               0.147956
968.12               0.14238
968.5                0.145268
968.88               0.148134
969.26               0.151616
969.64               0.149939
970.02               0.149091
970.4                0.150743
970.78               0.147907
971.16               0.157552
971.54               0.150458
971.92               0.150717
972.3                0.202163
972.68               0.240089
973.06               0.199006
973.44               0.171498
973.82               0.172494
974.2                0.17081
974.58               0.158516
974.96               0.160441
975.34               0.156176
975.72               0.155089
976.1                0.154456
976.48               0.152493
976.86               0.157046
977.24               0.157705
977.62               0.153327
978                  0.149552
978.38               0.150072
978.76               0.143208
979.14               0.162462
979.52               0.162881
979.9                0.166263
980.28               0.155527
980.66               0.157474
981.04               0.156923
981.42               0.153148
981.8                0.150562
982.18               0.144613
982.56               0.147982
982.94               0.1452
983.32               0.144567
983.7                0.154268
984.08               0.155689
984.46               0.156471
984.84               0.151386
985.22               0.158974
985.6                0.164549
985.98               0.1494
986.36               0.15061
986.74               0.155719
987.12               0.159454
987.5                0.155199
987.88               0.151009
988.26               0.153304
988.64               0.153982
989.02               0.157465
989.4                0.155839
989.78               0.160002
990.16               0.160317
990.54               0.155082
990.92               0.150565
991.3                0.149189
991.68               0.149416
992.06               0.153606
992.44               0.151334
992.82               0.144327
993.2                0.141098
993.58               0.154872
993.96               0.148167
994.34               0.146865
994.72               0.151237
995.1                0.150516
995.48               0.145184
995.86               0.153898
996.24               0.156325
996.62               0.155722
997                  0.155031
997.38               0.146992
997.76               0.148056
998.14               0.15393
998.52               0.167785
998.9                0.174545
999.28               0.162011
