# Photomultiplier 700V, Amplifier 1uA x3
# Spectrum #00014	2:53:02 PM 4/26/2018
# Wide scan: start 750nm, end 1249.79nm
# Monochromator settings: Grating: 1200 lines/mm; Slits: entrance 20um, exit 20um.
# DAQ device: PCI-6221; ADC bits: 16; Settling time: 10ms
# ADC input range: 10V max, -10V min. Sampling: 100 samples at 6.0006k/second.
# Wavelength (nm)    Signal (V)
750                  0.06228
750.41               0.063936
750.82               0.092193
751.23               0.10855
751.64               0.091943
752.05               0.083216
752.46               0.075213
752.87               0.071332
753.28               0.065464
753.69               0.064776
754.1                0.065114
754.51               0.066058
754.92               0.061862
755.33               0.06059
755.74               0.063105
756.15               0.063497
756.56               0.061758
756.97               0.064487
757.38               0.065003
757.79               0.062462
758.2                0.060801
758.61               0.059892
759.02               0.060739
759.43               0.06143
759.84               0.061047
760.25               0.060788
760.66               0.06033
761.07               0.06169
761.48               0.058126
761.89               0.058814
762.3                0.055358
762.71               0.062537
763.12               0.061028
763.53               0.059593
763.94               0.10694
764.35               0.115287
764.76               0.089892
765.17               0.078842
765.58               0.067285
765.99               0.065704
766.4                0.066091
766.81               0.064189
767.22               0.067713
767.63               0.06365
768.04               0.060528
768.45               0.059989
768.86               0.06019
769.27               0.059217
769.68               0.05985
770.09               0.063202
770.5                0.062719
770.91               0.060512
771.32               0.061917
771.73               0.060512
772.14               0.063358
772.55               0.079014
772.96               0.09674
773.37               0.08664
773.78               0.074785
774.19               0.067162
774.6                0.061618
775.01               0.060901
775.42               0.060074
775.83               0.061089
776.24               0.061437
776.65               0.062144
777.06               0.061346
777.47               0.065669
777.88               0.062858
778.29               0.062232
778.7                0.064614
779.11               0.060875
779.52               0.061385
779.93               0.061391
780.34               0.060564
780.75               0.057656
781.16               0.055848
781.57               0.056108
781.98               0.056731
782.39               0.061433
782.8                0.061914
783.21               0.059918
783.62               0.057841
784.03               0.059778
784.44               0.058561
784.85               0.060492
785.26               0.06155
785.67               0.063238
786.08               0.058282
786.49               0.063627
786.9                0.060593
787.31               0.060632
787.72               0.058272
788.13               0.057497
788.54               0.05785
788.95               0.058857
789.36               0.060625
789.77               0.06253
790.18               0.061216
790.59               0.05847
791                  0.058892
791.41               0.057503
791.82               0.057688
792.23               0.05837
792.64               0.059538
793.05               0.059746
793.46               0.058337
793.87               0.055309
794.28               0.056867
794.69               0.057055
795.1                0.064481
795.51               0.071825
795.92               0.06683
796.33               0.063196
796.74               0.061167
797.15               0.060833
797.56               0.062073
797.97               0.058921
798.38               0.061508
798.79               0.057922
799.2                0.057766
799.61               0.057906
800.02               0.058607
800.43               0.058827
800.84               0.065539
801.25               0.066856
801.66               0.064257
802.07               0.06414
802.48               0.063322
802.89               0.057192
803.3                0.059454
803.71               0.059506
804.12               0.058087
804.53               0.059139
804.94               0.06032
805.35               0.059048
805.76               0.061579
806.17               0.060447
806.58               0.057169
806.99               0.057792
807.4                0.060333
807.81               0.05774
808.22               0.057828
808.63               0.05798
809.04               0.05958
809.45               0.066506
809.86               0.387751
810.27               0.274474
810.68               0.198752
811.09               0.150208
811.5                0.112642
811.91               0.138959
812.32               0.158227
812.73               0.11569
813.14               0.089818
813.55               0.077225
813.96               0.06881
814.37               0.061758
814.78               0.062702
815.19               0.057971
815.6                0.057779
816.01               0.085638
816.42               0.080451
816.83               0.07189
817.24               0.069563
817.65               0.065218
818.06               0.060018
818.47               0.058857
818.88               0.057601
819.29               0.056474
819.7                0.054861
820.11               0.055783
820.52               0.054053
820.93               0.053437
821.34               0.054897
821.75               0.055105
822.16               0.054209
822.57               0.057977
822.98               0.057403
823.39               0.056056
823.8                0.056682
824.21               0.056066
824.62               0.057075
825.03               0.055429
825.44               0.052729
825.85               0.055147
826.26               0.055436
826.67               0.074496
827.08               0.09146
827.49               0.077732
827.9                0.067557
828.31               0.063861
828.72               0.060203
829.13               0.05689
829.54               0.053125
829.95               0.059129
830.36               0.06034
830.77               0.058415
831.18               0.055095
831.59               0.051457
832                  0.053729
832.41               0.055777
832.82               0.05811
833.23               0.0553
833.64               0.057555
834.05               0.057114
834.46               0.053975
834.87               0.054719
835.28               0.053271
835.69               0.051175
836.1                0.051515
836.51               0.05776
836.92               0.056805
837.33               0.055076
837.74               0.053998
838.15               0.050724
838.56               0.054151
838.97               0.051178
839.38               0.050675
839.79               0.052879
840.2                0.051408
840.61               0.052152
841.02               0.057876
841.43               0.064682
841.84               0.058282
842.25               0.057461
842.66               0.060113
843.07               0.058039
843.48               0.058483
843.89               0.056238
844.3                0.054686
844.71               0.051996
845.12               0.054199
845.53               0.052255
845.94               0.053625
846.35               0.052995
846.76               0.054722
847.17               0.051282
847.58               0.05272
847.99               0.050568
848.4                0.050873
848.81               0.05161
849.22               0.050899
849.63               0.049503
850.04               0.053346
850.45               0.053537
850.86               0.055147
851.27               0.058698
851.68               0.058081
852.09               0.057435
852.5                0.056393
852.91               0.054913
853.32               0.053586
853.73               0.052486
854.14               0.057279
854.55               0.052197
854.96               0.05256
855.37               0.054904
855.78               0.053096
856.19               0.054248
856.6                0.055777
857.01               0.053576
857.42               0.051376
857.83               0.054044
858.24               0.052892
858.65               0.051421
859.06               0.053966
859.47               0.053223
859.88               0.05601
860.29               0.054972
860.7                0.054667
861.11               0.054329
861.52               0.056091
861.93               0.055257
862.34               0.051165
862.75               0.054975
863.16               0.04889
863.57               0.048254
863.98               0.048601
864.39               0.050087
864.8                0.053865
865.21               0.053339
865.62               0.052999
866.03               0.049951
866.44               0.043876
866.85               0.045722
867.26               0.050779
867.67               0.049529
868.08               0.052372
868.49               0.051636
868.9                0.053606
869.31               0.050123
869.72               0.054164
870.13               0.053865
870.54               0.053674
870.95               0.052989
871.36               0.052882
871.77               0.074126
872.18               0.319591
872.59               0.22011
873                  0.149098
873.41               0.106096
873.82               0.087085
874.23               0.074344
874.64               0.066013
875.05               0.062125
875.46               0.058302
875.87               0.055614
876.28               0.056559
876.69               0.053797
877.1                0.052392
877.51               0.051077
877.92               0.05024
878.33               0.05147
878.74               0.049919
879.15               0.051642
879.56               0.052106
879.97               0.051636
880.38               0.052074
880.79               0.052882
881.2                0.049146
881.61               0.052866
882.02               0.048582
882.43               0.049685
882.84               0.05086
883.25               0.050055
883.66               0.048721
884.07               0.048426
884.48               0.052973
884.89               0.051155
885.3                0.049338
885.71               0.047546
886.12               0.047462
886.53               0.046865
886.94               0.047459
887.35               0.050818
887.76               0.052324
888.17               0.053606
888.58               0.054342
888.99               0.051314
889.4                0.049091
889.81               0.050389
890.22               0.049795
890.63               0.052716
891.04               0.051486
891.45               0.054027
891.86               0.052333
892.27               0.051584
892.68               0.050905
893.09               0.051269
893.5                0.050493
893.91               0.048384
894.32               0.048244
894.73               0.049841
895.14               0.050068
895.55               0.050195
895.96               0.049494
896.37               0.051856
896.78               0.054433
897.19               0.053927
897.6                0.053505
898.01               0.050003
898.42               0.050428
898.83               0.051259
899.24               0.050036
899.65               0.052366
900.06               0.05087
900.47               0.0506
900.88               0.050318
901.29               0.050805
901.7                0.049351
902.11               0.05097
902.52               0.051457
902.93               0.054173
903.34               0.053197
903.75               0.051113
904.16               0.049487
904.57               0.05013
904.98               0.047329
905.39               0.044908
905.8                0.049409
906.21               0.054865
906.62               0.052366
907.03               0.05282
907.44               0.051749
907.85               0.050227
908.26               0.049656
908.67               0.04655
909.08               0.048432
909.49               0.048455
909.9                0.048883
910.31               0.047121
910.72               0.049328
911.13               0.052755
911.54               0.05026
911.95               0.049133
912.36               0.049815
912.77               0.050626
913.18               0.051668
913.59               0.050633
914                  0.052668
914.41               0.054177
914.82               0.049546
915.23               0.049646
915.64               0.046076
916.05               0.047644
916.46               0.048504
916.87               0.048614
917.28               0.046725
917.69               0.047907
918.1                0.048351
918.51               0.049429
918.92               0.046732
919.33               0.050474
919.74               0.048611
920.15               0.047975
920.56               0.04717
920.97               0.047718
921.38               0.04644
921.79               0.047576
922.2                0.046433
922.61               0.046725
923.02               0.048338
923.43               0.051704
923.84               0.04767
924.25               0.047105
924.66               0.045336
925.07               0.046076
925.48               0.049529
925.89               0.048776
926.3                0.048997
926.71               0.052197
927.12               0.052255
927.53               0.050571
927.94               0.050983
928.35               0.049867
928.76               0.052849
929.17               0.048965
929.58               0.050704
929.99               0.051162
930.4                0.051425
930.81               0.055283
931.22               0.05271
931.63               0.0522
932.04               0.049101
932.45               0.052388
932.86               0.052797
933.27               0.05111
933.68               0.049065
934.09               0.051197
934.5                0.051944
934.91               0.051197
935.32               0.049442
935.73               0.047553
936.14               0.046352
936.55               0.048796
936.96               0.050503
937.37               0.050146
937.78               0.04925
938.19               0.099421
938.6                0.079179
939.01               0.066324
939.42               0.061644
939.83               0.324726
940.24               0.50736
940.65               0.31559
941.06               0.203981
941.47               0.138135
941.88               0.103318
942.29               0.081935
942.7                0.066704
943.11               0.05945
943.52               0.056659
943.93               0.054803
944.34               0.053914
944.75               0.053388
945.16               0.054436
945.57               0.053943
945.98               0.053648
946.39               0.054167
946.8                0.055575
947.21               0.052178
947.62               0.051389
948.03               0.050555
948.44               0.051334
948.85               0.051655
949.26               0.049283
949.67               0.052113
950.08               0.048981
950.49               0.048926
950.9                0.04815
951.31               0.048835
951.72               0.048387
952.13               0.050013
952.54               0.05185
952.95               0.052369
953.36               0.047845
953.77               0.049419
954.18               0.051905
954.59               0.051363
955                  0.050776
955.41               0.050201
955.82               0.044979
956.23               0.043113
956.64               0.045255
957.05               0.045148
957.46               0.047666
957.87               0.049802
958.28               0.052155
958.69               0.051632
959.1                0.050935
959.51               0.046777
959.92               0.047121
960.33               0.050821
960.74               0.048682
961.15               0.049013
961.56               0.050844
961.97               0.049718
962.38               0.051447
962.79               0.054848
963.2                0.051116
963.61               0.04951
964.02               0.049166
964.43               0.051665
964.84               0.048595
965.25               0.047861
965.66               0.047774
966.07               0.045116
966.48               0.049098
966.89               0.049474
967.3                0.049257
967.71               0.04704
968.12               0.044353
968.53               0.043937
968.94               0.046985
969.35               0.048101
969.76               0.049481
970.17               0.047946
970.58               0.046855
970.99               0.05196
971.4                0.051561
971.81               0.048767
972.22               0.048932
972.63               0.047858
973.04               0.053206
973.45               0.054475
973.86               0.053138
974.27               0.052233
974.68               0.052833
975.09               0.057029
975.5                0.055588
975.91               0.051532
976.32               0.050016
976.73               0.051262
977.14               0.051944
977.55               0.053709
977.96               0.05073
978.37               0.046342
978.78               0.047563
979.19               0.047939
979.6                0.049834
980.01               0.05072
980.42               0.046472
980.83               0.04581
981.24               0.050555
981.65               0.048922
982.06               0.052749
982.47               0.051438
982.88               0.051194
983.29               0.049834
983.7                0.04755
984.11               0.049653
984.52               0.05293
984.93               0.056212
985.34               0.05491
985.75               0.054394
986.16               0.05075
986.57               0.050574
986.98               0.051217
987.39               0.050707
987.8                0.051006
988.21               0.048137
988.62               0.044272
989.03               0.049042
989.44               0.044087
989.85               0.046404
990.26               0.046453
990.67               0.048215
991.08               0.049055
991.49               0.051392
991.9                0.050905
992.31               0.049104
992.72               0.049893
993.13               0.051457
993.54               0.048475
993.95               0.050597
994.36               0.050779
994.77               0.051051
995.18               0.049263
995.59               0.052723
996                  0.049536
996.41               0.050023
996.82               0.048316
997.23               0.046774
997.64               0.047543
998.05               0.051197
998.46               0.053472
998.87               0.050879
999.28               0.049971
999.69               0.054047
1000.1               0.053388
1000.51              0.051963
1000.92              0.050772
1001.33              0.049399
1001.74              0.048144
1002.15              0.050188
1002.56              0.048591
1002.97              0.052093
1003.38              0.053135
1003.79              0.053979
1004.2               0.052882
1004.61              0.050922
1005.02              0.052642
1005.43              0.050928
1005.84              0.053625
1006.25              0.05122
1006.66              0.051444
1007.07              0.049633
1007.48              0.050172
1007.89              0.051986
1008.3               0.052969
1008.71              0.05147
1009.12              0.046644
1009.53              0.051295
1009.94              0.049062
